File: SnIn/cusn/output_xrd/Cu6Sn5_Extinction_peak.csv
H,K,L,Distance,2theta/TOF,Mult
0,-1,3,2.9618,30.1743,4
-2,-1,3,2.7703,32.3152,4
-3,0,-2,2.7186,32.9471,2
3,2,0,2.5736,34.8611,4
-3,-2,1,2.5574,35.089,4
-2,1,-3,2.4621,36.4941,4
0,3,0,2.4293,37.0046,2
-4,1,2,2.4074,37.3536,4
3,2,-2,2.384,37.734,4
-1,2,-3,2.3091,39.0067,4
-1,0,-4,2.2993,39.1797,2
2,-1,-4,2.2443,40.1807,4
-5,0,1,2.2015,40.9966,2
-5,0,0,2.1811,41.3975,2
0,3,-2,2.1731,41.557,4
-4,1,-2,2.138,42.2716,4
-3,-2,3,2.1312,42.413,4
-2,3,2,2.068,43.775,4
-1,2,4,2.0355,44.511,4
2,3,2,1.9728,46.0054,4
5,0,-3,1.9535,46.4865,2
0,-3,3,1.944,46.7271,4
-4,1,4,1.9023,47.8144,4
2,3,-3,1.8867,48.2348,4
-5,-2,1,1.8843,48.3001,4
4,-1,3,1.8791,48.4424,4
1,0,5,1.866,48.8045,2
-3,0,5,1.8358,49.6612,2
-4,3,1,1.8167,50.2193,4
-1,4,0,1.797,50.8087,4
6,-1,-1,1.7824,51.2549,4
1,4,-1,1.7751,51.4811,4
5,0,-4,1.7633,51.8511,2
4,3,-2,1.7591,51.9842,4
6,1,-2,1.743,52.5008,4
-5,-2,3,1.7217,53.201,4
2,-1,5,1.7008,53.9072,4
5,0,3,1.6934,54.162,2
-6,-1,-1,1.6917,54.2209,4
5,-2,2,1.6744,54.8279,4
4,1,-5,1.6668,55.099,4
4,-3,-3,1.6564,55.4747,4
4,1,4,1.6467,55.8299,4
1,0,-6,1.6401,56.0744,2
-3,4,0,1.6288,56.4982,4
-3,0,-5,1.6151,57.0211,2
3,-4,1,1.5888,58.054,4
-2,1,6,1.5841,58.2427,4
-3,-4,2,1.5774,58.5141,4
3,0,-6,1.5726,58.7101,2
7,0,0,1.5579,59.3191,2
-7,0,2,1.5544,59.4661,2
5,2,3,1.5357,60.2647,4
0,3,-5,1.5183,61.0284,4
-5,0,-4,1.5124,61.2921,2
7,0,1,1.5028,61.7263,2
7,0,-3,1.4965,62.0148,2
3,2,5,1.4765,62.95,4
6,-3,-1,1.4658,63.4628,4
2,1,6,1.4621,63.6422,4
0,-5,0,1.4576,63.8619,2
4,1,5,1.4502,64.2267,4
-3,2,6,1.4439,64.5407,4
0,5,1,1.4414,64.6663,4
7,2,0,1.4325,65.1175,4
-1,4,-4,1.428,65.3482,4
2,3,5,1.4194,65.7941,4
-6,-1,5,1.4153,66.0089,4
-7,0,4,1.4137,66.0932,2
2,-5,0,1.4081,66.3899,4
-5,4,1,1.4036,66.6304,4
-2,5,1,1.4015,66.7433,4
-5,4,0,1.3983,66.9161,4
0,5,2,1.3962,67.0301,4
-7,-2,-1,1.3893,67.4074,4
-2,-5,-1,1.3858,67.6006,4
5,4,-2,1.3803,67.9065,4
-3,0,7,1.3695,68.5161,2
5,4,1,1.3653,68.7563,4
-8,1,1,1.3553,69.3358,4
2,-3,-6,1.3495,69.6768,4
-8,-1,2,1.3447,69.9617,4
2,-5,2,1.3385,70.3335,4
6,-1,4,1.3362,70.4726,4
0,-5,3,1.3293,70.8933,4
-7,2,-2,1.3245,71.1892,4
7,0,-5,1.3184,71.5691,2
5,-2,-6,1.3136,71.8712,4
-1,2,7,1.3112,72.0233,4
5,4,2,1.3101,72.0933,4
-3,2,-6,1.3089,72.1698,4
-4,1,7,1.3012,72.6648,4
-6,-1,6,1.2929,73.2067,4
4,5,-1,1.2864,73.6374,4
3,2,-7,1.282,73.9321,4
-4,3,6,1.2748,74.42,4
2,-3,6,1.2716,74.6391,4
5,2,5,1.2679,74.8942,4
4,-5,-2,1.2655,75.0608,4
5,0,-7,1.2626,75.2631,2
8,-1,-4,1.2562,75.7139,4
7,2,3,1.2469,76.3797,4
-6,-3,5,1.2405,76.8455,4
-2,-5,4,1.2399,76.8895,4
3,0,7,1.2361,77.1695,2
9,0,-1,1.2257,77.9473,2
4,-5,2,1.2211,78.297,4
-6,-1,-5,1.2194,78.4271,4
-5,0,-6,1.2149,78.7739,2
9,0,0,1.2117,79.0226,2
-3,0,8,1.2099,79.1632,2
1,6,0,1.2072,79.3753,4
-1,-6,1,1.2004,79.915,4
0,1,8,1.199,80.0272,4
-9,0,3,1.1967,80.2122,2
7,-4,-1,1.1921,80.5851,4
8,-1,-5,1.1903,80.7321,4
-1,-4,-6,1.1887,80.8633,4
6,-3,4,1.1862,81.0692,4
7,4,-2,1.1825,81.3762,4
6,1,-7,1.1798,81.6018,4
1,6,-2,1.1763,81.8965,4
-3,2,-7,1.1706,82.3815,4
1,-6,2,1.167,82.6913,4
-7,2,-4,1.1645,82.9079,4
-5,4,-4,1.1637,82.9775,4
-9,2,1,1.1617,83.1521,4
7,4,1,1.1593,83.3627,4
7,2,-6,1.1572,83.548,4
-6,-3,6,1.1556,83.6898,4
-5,-2,-6,1.1525,83.9662,4
4,-3,6,1.1516,84.0468,4
-9,-2,0,1.1498,84.2085,4
2,-3,7,1.1458,84.5706,4
-5,0,8,1.1385,85.2406,2
-6,-5,0,1.1371,85.3705,4
2,-1,8,1.1356,85.5102,4
3,-6,-2,1.1334,85.716,4
-1,-2,-8,1.1297,86.0647,4
7,0,-7,1.1261,86.4072,2
-9,2,-1,1.123,86.7046,4
-2,-5,-5,1.1197,87.0239,4
-6,5,-1,1.1171,87.2774,4
-5,4,6,1.1142,87.5621,4
-1,-4,7,1.1128,87.7004,4
4,-5,-5,1.1098,87.9983,4
9,0,-5,1.1074,88.2384,2
8,-1,4,1.1053,88.4497,4
9,-2,-4,1.1032,88.6622,4
-3,6,3,1.1025,88.7333,4
-5,0,-7,1.098,89.1935,2
1,0,-9,1.0918,89.837,2
1,6,-4,1.0886,90.1733,4
0,-3,8,1.0871,90.3321,4
5,4,5,1.0859,90.4595,4
9,-2,2,1.0842,90.6408,4
7,2,5,1.0829,90.78,4
-8,-3,5,1.0806,91.0275,4
6,1,-8,1.0785,91.2549,4
-1,6,-4,1.074,91.7467,4
7,4,3,1.0727,91.89,4
6,-5,-4,1.0701,92.1781,4
0,1,9,1.0688,92.323,4
5,-6,-1,1.0635,92.9193,4
4,-3,-8,1.061,93.2038,4
1,0,9,1.0594,93.387,2
-10,-1,-1,1.0546,93.9418,4
-4,3,-7,1.0523,94.2104,4
9,0,-6,1.0507,94.3984,2
-5,-6,-1,1.0465,94.8962,4
-7,0,-6,1.046,94.9559,2
-4,-5,6,1.0445,95.1355,4
-6,5,-3,1.0422,95.4125,4
2,-3,8,1.0391,95.789,4
-4,5,-5,1.0384,95.8745,4
-9,-2,-3,1.0372,96.0215,4
-1,-6,5,1.0335,96.4783,4
8,-1,5,1.0331,96.528,4
8,3,-6,1.0262,97.3954,4
9,0,4,1.0237,97.7144,2
2,-7,0,1.0226,97.8556,4
-3,6,-4,1.022,97.9328,4
-10,-1,-2,1.0207,98.1007,4
-1,4,8,1.0188,98.3472,4
-1,-6,-5,1.0179,98.4646,4
-9,4,1,1.0169,98.5954,4
2,7,1,1.014,98.9771,4
-3,6,5,1.013,99.1096,4
10,-1,-5,1.0103,99.4695,4
2,-5,-7,1.0091,99.6305,4
-3,-4,8,1.0079,99.7922,4
2,7,-2,1.0066,99.9681,4