File: SnIn/cusn/output_xrd/Cu6Sn5HKL.csv
H,K,L,Distance,2theta/TOF,Mult
1,1,-3,2.9652,30.1388,1
0,2,2,2.916,30.6597,4
2,2,1,2.8251,31.6717,1
4,0,-1,2.7364,32.7267,2
2,2,-2,2.6756,33.492,1
4,0,-2,2.5505,35.1871,2
4,0,1,2.5265,35.5324,2
3,-1,-3,2.4718,36.3459,4
0,2,3,2.4219,37.1218,4
2,0,-4,2.3589,38.1509,2
1,-3,-1,2.3215,38.7899,4
-1,-3,-1,2.2862,39.4135,4
-4,0,-2,2.2364,40.3288,2
4,-2,-1,2.1881,41.259,4
1,3,-2,2.1598,41.8248,4
-2,2,-3,2.125,42.5428,4
-1,-3,-2,2.1038,42.9927,4
4,2,-2,2.0895,43.3017,4
5,1,-2,2.0309,44.6172,4
-3,3,0,2.0198,44.8757,4
-5,-1,-1,1.984,45.7309,4
4,0,-4,1.9706,46.0597,2
-2,0,5,1.9277,47.146,2
4,2,-3,1.9232,47.263,4
1,1,-5,1.8995,47.8893,1
-1,3,-3,1.8841,48.3056,4
3,1,4,1.8308,49.806,4
0,4,0,1.822,50.0631,2
-3,-3,-2,1.8114,50.3765,1
-6,0,2,1.7951,50.8663,2
3,-3,-3,1.7837,51.2149,4
-2,0,-5,1.7491,52.3038,2
-4,-2,4,1.7334,52.814,4
1,-3,-4,1.7265,53.0415,4
5,1,-4,1.7138,53.4657,4
0,-4,-2,1.7061,53.7263,4
-6,0,3,1.7003,53.9244,2
2,-4,1,1.6873,54.3739,4
2,-4,-2,1.6538,55.5694,4
5,-1,3,1.6495,55.7269,4
-5,-3,1,1.6313,56.4038,4
2,0,-6,1.623,56.7183,2
0,0,6,1.6208,56.8023,2
2,4,2,1.6039,57.4562,4
-5,-3,2,1.595,57.8069,4
2,-2,5,1.5768,58.5385,4
5,3,1,1.572,58.7347,4
2,4,-3,1.5566,59.3736,4
5,-1,-5,1.5409,60.0404,4
3,-1,-6,1.5372,60.1998,4
1,3,-5,1.5289,60.5607,4
-5,-3,3,1.5223,60.851,4
-4,4,1,1.5165,61.1086,4
-4,0,6,1.4976,61.9642,2
-3,-3,-4,1.4924,62.2041,1
5,-3,2,1.4893,62.348,4
-4,4,2,1.4825,62.6663,4
1,3,5,1.4798,62.7936,4
-7,-1,-1,1.4718,63.1742,4
-3,-3,5,1.4646,63.5209,1
-6,-2,4,1.4466,64.4057,4
-6,0,5,1.4428,64.5959,2
1,-5,-1,1.4333,65.0767,4
-1,5,-1,1.4248,65.5133,4
4,-4,2,1.4125,66.1565,4
-7,-1,-2,1.3954,67.0736,4
5,-3,3,1.3892,67.4129,4
-4,-2,6,1.3851,67.6393,4
-2,2,-6,1.3811,67.8618,4
8,0,-1,1.3793,67.9624,2
4,2,5,1.371,68.4307,4
-8,0,0,1.3632,68.8771,2
-3,-5,0,1.3528,69.4823,4
3,-1,-7,1.346,69.8843,4
-6,-2,5,1.3414,70.1591,4
8,0,-3,1.3316,70.7524,2
-1,5,3,1.3296,70.8748,4
3,5,-2,1.323,71.2822,4
3,3,-6,1.3201,71.4628,1
-6,0,6,1.3137,71.8649,2
-1,5,-3,1.3097,72.1188,4
-4,0,-6,1.308,72.2272,2
2,0,7,1.2994,72.7815,2
7,-1,-5,1.2974,72.9118,4
-8,-2,1,1.29,73.3982,4
3,5,2,1.2846,73.7576,4
-8,-2,2,1.2808,74.0129,4
7,-3,1,1.278,74.2023,4
-8,0,4,1.2752,74.3927,2
-7,3,3,1.2741,74.4678,4
-8,0,-2,1.2632,75.2211,2
-6,4,-1,1.258,75.5865,4
-8,-2,3,1.2507,76.1061,4
5,-1,-7,1.2441,76.5827,4
4,4,4,1.2392,76.9409,1
-6,-2,6,1.2359,77.1842,4
7,-3,2,1.227,77.8491,4
-7,3,4,1.2219,78.2359,4
-5,3,6,1.2183,78.5116,4
0,0,8,1.2156,78.7197,2
0,-6,0,1.2146,78.7971,2
5,5,0,1.2118,79.0148,1
9,-1,-1,1.2087,79.2573,4
0,6,-1,1.2053,79.5252,4
-5,-5,2,1.2001,79.939,1
-6,0,7,1.1956,80.301,2
3,1,-8,1.1936,80.4631,4
3,3,-7,1.193,80.5118,1
-5,-5,-1,1.1902,80.7403,1
2,-6,-1,1.1816,81.4512,4
4,0,-8,1.1794,81.6354,2
1,-1,8,1.1727,82.2021,4
1,5,-5,1.1712,82.3302,4
-4,0,-7,1.1676,82.6395,2
-7,3,-3,1.1646,82.8992,4
-2,6,2,1.1607,83.2397,4
4,4,-6,1.1569,83.5746,1
-6,4,-3,1.1538,83.85,4
2,0,8,1.1496,84.2265,2
8,2,-5,1.1454,84.607,4
-2,6,-2,1.1431,84.817,4
0,6,3,1.1374,85.3426,4
8,2,3,1.1338,85.6785,4
-6,4,5,1.1311,85.9324,4
2,-6,-3,1.1256,86.455,4
5,5,-4,1.1234,86.6661,1
7,-1,5,1.1206,86.9366,4
8,0,4,1.1182,87.1699,2
-4,6,1,1.1102,87.9584,4
2,-4,-7,1.1093,88.0482,4
-10,0,1,1.1026,88.7231,2
2,6,3,1.1016,88.8249,4
8,4,-1,1.0997,89.019,4
-2,-2,-8,1.0964,89.3585,1
-4,-6,-1,1.0947,89.5347,4
8,4,-2,1.094,89.6074,4
-8,4,0,1.0915,89.8684,4
7,-3,-6,1.0905,89.9733,4
-5,3,-6,1.0866,90.3851,4
5,1,7,1.0857,90.4808,4
-9,3,0,1.0843,90.6301,4
3,5,5,1.082,90.8766,4
0,0,-9,1.0805,91.0383,2
-1,1,9,1.0797,91.1248,4
-8,4,3,1.075,91.6369,4
-4,-6,3,1.0703,92.1559,4
3,-5,-6,1.069,92.3007,4
1,3,8,1.0674,92.4796,4
-10,0,-1,1.0658,92.6594,2
7,5,0,1.0643,92.8287,4
4,-4,6,1.0625,93.0329,4
-2,-4,-7,1.0579,93.5595,4
-10,2,1,1.0553,93.8604,4
2,-6,4,1.0519,94.2573,4
-1,1,-9,1.0484,94.6702,4
-9,3,4,1.045,95.0755,4
8,4,-4,1.0447,95.1115,4
-8,0,-5,1.0437,95.2316,2
8,4,2,1.0381,95.9112,4
0,2,-9,1.0359,96.1814,4
-4,-6,4,1.034,96.4163,4
5,3,-8,1.0309,96.8025,4
1,7,1,1.029,97.0411,4
-7,1,8,1.0282,97.142,4
6,4,5,1.0233,97.7657,4
-7,3,7,1.0216,97.9844,4
-4,-2,9,1.0193,98.2822,4
-1,7,2,1.0166,98.6347,4
-7,5,4,1.0148,98.8714,4
-6,-6,1,1.0134,99.0565,1
-1,-5,7,1.0117,99.2825,4
-1,7,-2,1.0106,99.4293,4
-9,-3,5,1.0076,99.8327,4